**Cylinder properties:
*radii (r10  r20)
[mm]  [mm]
12.7  15.3
*Cylinder Density
[kg/m3]
8940.0
*Cylinder Johnson-Cook (A  B  C  n)
[MPa]  [MPa]  -  -
89.63  0.  0.  0.
**
**Explosive properties:
*Density of the explosive
[kg/m3]
1630.0
*Detonation velocity
[m/s]
 6930
*Pressure at CJ point
[GPa]
21.0
*Detonation Heat
[GPa]
7.0
  
**
**Expansion data
*Time  Radius
[1e-6s]  [mm]
0.643216  0.1321
0.844221  0.198151
1.02513  0.264201
1.20603  0.363276
1.38693  0.462351
1.54774  0.594452
1.74874  0.726552
1.92965  0.858653
2.11055  0.990753
2.27136  1.15588
2.45226  1.321
2.61307  1.48613
2.77387  1.61823
2.95477  1.78336
3.11558  1.98151
3.27638  2.08058
3.43719  2.24571
3.61809  2.44386
3.77889  2.60898
3.95980  2.77411
4.10050  2.97226
4.26131  3.13738
4.44221  3.30251
4.60302  3.50066
4.76382  3.66579
4.92462  3.83091
5.08543  3.99604
5.24623  4.19419
5.40704  4.39234
5.56784  4.55746
5.72864  4.75561
5.88945  4.98679
6.03015  5.11889
6.19095  5.31704
6.35176  5.51519
6.51256  5.71334
6.69347  5.91149
6.85427  6.07662
6.99497  6.27477
7.15578  6.47292
7.31658  6.67107
7.47739  6.86922
7.63819  7.00132
7.77889  7.2325
7.93970  7.43065
8.10050  7.6288
8.24121  7.82695
8.40201  7.99207
8.54271  8.22325
8.70352  8.38838
8.86432  8.61955
9.00503  8.78468
9.16583  9.01585
9.30653  9.18098
9.46734  9.37913
9.62814  9.6103
9.78894  9.80845
9.94975  10.0066
10.0905  10.2048
10.2513  10.4029
10.4121  10.6011
10.5528  10.7992
10.7136  10.9974
10.8543  11.1955
11.0151  11.3937
11.1759  11.6248
11.3367  11.823
11.4774  11.9881
11.6181  12.1863
11.7789  12.4174
11.9196  12.6156
12.0804  12.8137
12.2412  13.0119
12.3819  13.21
12.5427  13.4412
12.6834  13.6394
12.8241  13.8375
12.9849  14.0026
13.1256  14.2338
13.2663  14.432
13.4271  14.6631
13.5678  14.8613
13.7286  15.0264
13.8693  15.2246
14.0302  15.4557
14.1709  15.6539
14.3116  15.8851
14.4925  16.0502
14.6131  16.2814
14.7739  16.4795
14.9146  16.6777
15.0553  16.9089
15.2161  17.107
15.3568  17.3052
15.5176  17.5363
15.6583  17.7015
15.7990  17.9326
15.9598  18.0978
16.1005  18.3289
16.2412  18.5601
16.3819  18.7252
16.5226  18.9564
16.6834  19.1215
16.8241  19.3527
16.9648  19.5509
17.1256  19.782
17.2663  19.9802
17.4070  20.1783
17.5678  20.4095
17.7085  20.6077
17.8693  20.8388
18.0101  21.004
18.1508  21.2351
18.3116  21.4333
18.4523  21.6645
18.5930  21.8626
18.7538  22.0608
18.8945  22.2919
19.0352  22.4901
19.1960  22.6882
19.3367  22.9194
19.4774  23.1176
19.6382  23.3157
19.7789  23.5469
19.9196  23.745
20.0603  23.9762
20.2010  24.1083
20.3417  24.3395
20.4824  24.5707
20.6432  24.7688
20.7638  25
20.9246  25.1982
